Symbol: Gd
Atomic Number: 64
Atomic Mass: 157.250000
Start Spectral Index: 4
1 371
2 465
3 158
4 50
End Spectral Index:
Order of Magnitude: 0.000001
Start Spectral Lines:
4 0.096792
4 0.098342
4 0.098710
4 0.098791
4 0.099504
4 0.099580
4 0.099649
4 0.099924
4 0.100036
4 0.100273
4 0.100446
4 0.100566
4 0.100655
4 0.100724
4 0.106384
4 0.122837
4 0.130723
4 0.131329
4 0.131671
4 0.132142
4 0.133079
4 0.139324
4 0.147698
4 0.170503
4 0.170601
4 0.173624
3 0.181347
4 0.181532
3 0.194626
3 0.197434
3 0.197524
4 0.199789
3 0.200944
3 0.201872
3 0.202847
3 0.204668
4 0.204994
3 0.205845
4 0.206196
4 0.207106
4 0.207732
3 0.208074
4 0.209496
3 0.209887
3 0.212635
3 0.214871
3 0.217752
3 0.222464
3 0.223742
3 0.224054
3 0.224445
3 0.225088
3 0.225775
3 0.229322
4 0.229760
3 0.230109
3 0.230443
3 0.230774
3 0.231421
3 0.231427
3 0.231580
3 0.232383
3 0.232389
3 0.232449
3 0.233006
3 0.233573
3 0.233674
3 0.233969
3 0.234060
3 0.234346
3 0.234724
4 0.235338
3 0.236003
3 0.236159
3 0.236263
3 0.236310
3 0.236398
3 0.236594
3 0.237410
3 0.237501
4 0.237990
3 0.238211
4 0.238638
3 0.238855
3 0.238950
4 0.239080
4 0.239303
4 0.239402
3 0.239459
4 0.239649
4 0.239695
4 0.239700
3 0.239807
4 0.239860
4 0.240343
3 0.240576
3 0.240914
3 0.241008
4 0.241294
4 0.242000
4 0.244058
4 0.244112
3 0.246759
2 0.246897
4 0.246935
3 0.246989
2 0.247233
2 0.248642
2 0.248821
2 0.248947
2 0.249404
2 0.249710
2 0.249979
3 0.250028
3 0.252114
3 0.253487
3 0.253686
2 0.254444
3 0.255233
3 0.255467
3 0.255481
3 0.256410
3 0.256523
3 0.256581
3 0.256672
3 0.257004
3 0.257434
3 0.257683
3 0.257692
3 0.257890
3 0.257953
3 0.258439
2 0.258690
3 0.258898
3 0.258923
3 0.259659
3 0.261055
3 0.262018
3 0.262230
3 0.262430
3 0.262626
3 0.262888
3 0.262977
3 0.263061
3 0.263308
3 0.263411
3 0.263650
3 0.263723
3 0.263794
3 0.263876
3 0.263885
3 0.264132
3 0.264244
3 0.264450
3 0.264531
3 0.264683
3 0.264763
3 0.265227
3 0.265638
3 0.265734
3 0.266162
2 0.266229
3 0.267655
3 0.268024
3 0.268143
3 0.268332
3 0.268471
3 0.269358
3 0.269366
3 0.269523
3 0.269819
3 0.270371
3 0.270408
3 0.270533
3 0.271816
2 0.272131
3 0.272870
2 0.275103
3 0.275205
2 0.276490
2 0.276933
2 0.277063
2 0.277099
2 0.277180
1 0.277958
2 0.277996
2 0.278222
1 0.278850
2 0.279278
2 0.279548
2 0.279775
2 0.280921
2 0.281055
2 0.281176
2 0.281484
2 0.283458
3 0.283466
2 0.283752
2 0.283783
2 0.284107
2 0.284217
2 0.285475
2 0.285736
2 0.286062
2 0.286332
2 0.286590
2 0.286717
2 0.287259
2 0.288218
2 0.288298
2 0.288645
3 0.290558
2 0.290829
2 0.291138
2 0.291393
3 0.291925
2 0.291937
2 0.292418
2 0.292511
2 0.292920
2 0.294866
2 0.294887
1 0.295329
3 0.295639
2 0.295646
2 0.296179
2 0.296447
2 0.296630
2 0.297361
3 0.297629
2 0.298102
2 0.298461
3 0.298497
2 0.299239
2 0.299391
2 0.299991
2 0.300374
2 0.300597
2 0.301101
2 0.301307
2 0.302848
2 0.302986
2 0.303372
2 0.303493
1 0.304390
1 0.304737
2 0.305446
1 0.306081
2 0.306953
2 0.307345
2 0.307781
2 0.307797
2 0.308289
2 0.308491
2 0.309085
2 0.309296
2 0.309954
2 0.309980
2 0.310140
2 0.310208
2 0.310281
2 0.310345
2 0.310926
1 0.311209
2 0.311407
3 0.311749
3 0.311894
2 0.311950
1 0.311991
2 0.312084
2 0.312108
2 0.312490
2 0.312516
2 0.312947
2 0.313172
2 0.313400
2 0.313476
2 0.313594
1 0.313784
1 0.313821
1 0.313962
2 0.314404
2 0.314591
2 0.314643
2 0.314779
2 0.315744
1 0.315954
2 0.316160
2 0.316229
3 0.317758
1 0.319120
1 0.320022
1 0.320050
1 0.320434
2 0.322467
1 0.322471
2 0.322639
2 0.322725
1 0.323371
2 0.325113
3 0.325447
2 0.326019
1 0.326767
1 0.326858
2 0.326928
2 0.327512
2 0.328048
2 0.328256
1 0.328320
2 0.328325
1 0.329243
2 0.329316
1 0.329503
2 0.331468
2 0.331654
2 0.333130
3 0.333130
2 0.333234
2 0.333309
2 0.333714
2 0.334694
2 0.335106
2 0.335143
1 0.335857
2 0.335940
2 0.335959
2 0.336168
2 0.336320
2 0.336521
2 0.336656
3 0.337202
2 0.337566
2 0.338073
2 0.338149
2 0.339350
2 0.339609
1 0.339820
1 0.339830
2 0.340039
2 0.340097
2 0.340305
3 0.340395
1 0.340790
2 0.340854
2 0.340859
2 0.341028
1 0.341200
2 0.341425
2 0.341793
2 0.341971
2 0.342345
2 0.342373
1 0.342488
2 0.342490
2 0.342557
2 0.342691
2 0.342945
2 0.343397
2 0.344020
2 0.344077
2 0.344098
2 0.345061
2 0.345137
2 0.345222
2 0.345513
2 0.345589
1 0.345626
2 0.345804
2 0.346294
2 0.346399
2 0.346497
2 0.346794
2 0.346826
2 0.346998
2 0.347421
2 0.348228
2 0.348280
2 0.348360
1 0.348720
2 0.349295
2 0.349540
2 0.350651
2 0.351322
2 0.351350
1 0.351465
2 0.352521
2 0.352955
2 0.354378
2 0.354681
2 0.355037
2 0.355807
2 0.355921
2 0.355949
2 0.356507
2 0.357295
2 0.357576
2 0.357938
2 0.358293
2 0.358598
2 0.359149
2 0.359374
2 0.359447
2 0.360199
1 0.360590
2 0.360629
2 0.360669
2 0.360978
2 0.361179
2 0.361194
2 0.361442
2 0.361524
1 0.361545
2 0.361819
2 0.362149
2 0.362592
3 0.362593
2 0.363054
2 0.363580
2 0.364009
2 0.364122
2 0.364243
2 0.364666
2 0.364723
2 0.365048
2 0.365199
2 0.365358
2 0.365566
2 0.365719
1 0.365923
2 0.366330
2 0.366564
2 0.367225
1 0.367510
1 0.368026
1 0.368518
2 0.368738
2 0.368879
2 0.369508
2 0.369878
2 0.370078
3 0.370152
2 0.371376
1 0.371463
2 0.371742
1 0.371854
2 0.372051
2 0.372059
2 0.372313
2 0.372653
2 0.373190
1 0.373338
2 0.373351
1 0.373373
2 0.373414
1 0.374082
2 0.374108
2 0.374453
1 0.374589
2 0.375881
1 0.375901
2 0.375938
2 0.376007
2 0.376178
2 0.376199
1 0.376327
2 0.376440
2 0.376527
2 0.376811
2 0.376946
2 0.377052
2 0.377176
1 0.377233
1 0.377452
1 0.377790
2 0.378341
1 0.378412
2 0.378864
1 0.379171
2 0.379225
2 0.379347
2 0.379745
2 0.380237
1 0.380547
2 0.380617
2 0.380660
2 0.381505
2 0.381582
2 0.381772
2 0.381983
2 0.382714
2 0.382842
2 0.383055
3 0.383282
2 0.383289
1 0.383406
2 0.383608
2 0.383800
2 0.384073
2 0.384329
1 0.384437
2 0.384567
2 0.385178
2 0.385206
2 0.385354
2 0.385665
2 0.386415
1 0.386809
1 0.387467
2 0.387656
2 0.389580
2 0.389689
2 0.390351
1 0.390382
1 0.390540
1 0.390676
3 0.391135
2 0.391762
2 0.392436
1 0.393590
2 0.393593
1 0.393649
1 0.394292
1 0.394375
1 0.394436
1 0.394474
1 0.394666
2 0.395312
1 0.395449
2 0.395879
2 0.396056
2 0.396064
2 0.396478
1 0.396740
2 0.396938
1 0.397012
2 0.397041
2 0.397287
1 0.397383
2 0.397510
1 0.397593
1 0.398046
2 0.398834
1 0.398897
1 0.399382
2 0.399434
2 0.399529
2 0.399745
2 0.399889
2 0.400239
2 0.400607
1 0.400946
2 0.401004
2 0.401493
1 0.401672
3 0.401805
1 0.401839
1 0.401885
1 0.402087
2 0.402347
1 0.402428
1 0.402449
1 0.402875
1 0.402929
1 0.403202
1 0.403463
1 0.403654
1 0.403798
2 0.403847
2 0.403904
1 0.404485
1 0.404615
2 0.404798
1 0.404823
1 0.405034
2 0.405057
2 0.405100
1 0.405151
2 0.405443
1 0.405479
1 0.405587
1 0.405937
1 0.406103
2 0.406245
2 0.406374
2 0.406454
2 0.406474
1 0.406719
1 0.406950
1 0.406989
2 0.407144
2 0.407154
2 0.407435
2 0.407491
2 0.407959
1 0.407985
1 0.408485
2 0.408671
2 0.408884
1 0.409156
1 0.409387
1 0.409488
2 0.409564
2 0.409977
2 0.410006
1 0.410142
2 0.411260
2 0.413154
2 0.413265
2 0.413345
1 0.413533
2 0.413827
1 0.415003
2 0.416390
2 0.416426
2 0.416833
1 0.416844
1 0.417672
3 0.417844
2 0.418543
1 0.419196
2 0.419225
1 0.419281
2 0.419886
2 0.420604
2 0.421319
2 0.421621
2 0.421839
1 0.422622
1 0.422704
2 0.422833
2 0.423099
2 0.423997
2 0.424777
2 0.425293
2 0.425457
2 0.425481
1 0.426132
1 0.426329
1 0.426780
1 0.426820
1 0.427537
3 0.428116
2 0.428169
1 0.428703
1 0.428733
2 0.429729
2 0.429838
1 0.430050
1 0.430755
1 0.431050
1 0.431505
3 0.431549
1 0.431561
2 0.431726
1 0.432174
2 0.432233
1 0.432242
2 0.432679
1 0.432691
1 0.432834
1 0.433080
2 0.433183
1 0.433260
2 0.434250
2 0.434340
2 0.434552
1 0.434768
1 0.434784
2 0.434853
2 0.437100
1 0.437506
1 0.439329
1 0.440310
1 0.440438
2 0.440791
2 0.440949
1 0.441049
1 0.441240
1 0.441540
1 0.441597
2 0.442027
1 0.442365
1 0.443187
1 0.443735
2 0.443747
3 0.444716
1 0.446599
2 0.446780
1 0.446785
1 0.446833
1 0.447539
1 0.447738
2 0.448006
2 0.448232
2 0.448459
1 0.448596
1 0.448816
1 0.449839
1 0.449858
1 0.450747
2 0.450759
2 0.451577
1 0.452093
2 0.452409
1 0.452539
1 0.453908
2 0.454129
1 0.454330
1 0.454928
2 0.455936
1 0.457509
1 0.457719
1 0.458087
1 0.458257
2 0.458381
1 0.458435
1 0.458828
2 0.459827
2 0.459920
1 0.460019
2 0.460234
1 0.460422
1 0.461579
1 0.462572
1 0.463794
2 0.464030
1 0.464134
1 0.464730
1 0.464894
1 0.464989
1 0.465000
1 0.465484
1 0.467218
1 0.468049
1 0.468135
1 0.468464
3 0.468556
1 0.468943
1 0.469564
1 0.469680
1 0.469873
1 0.470445
1 0.471110
3 0.471638
1 0.472278
2 0.472979
2 0.473392
1 0.473707
1 0.474498
1 0.474715
1 0.476003
1 0.476207
1 0.476515
1 0.476857
1 0.478326
3 0.478413
1 0.478596
1 0.478809
2 0.480239
1 0.480879
1 0.482304
1 0.483661
1 0.484945
1 0.486395
2 0.486638
1 0.487286
1 0.493550
1 0.493999
1 0.495385
1 0.496017
3 0.497811
2 0.501222
1 0.501314
1 0.501644
2 0.502453
2 0.503269
1 0.504050
2 0.505229
1 0.507515
1 0.508422
3 0.509312
2 0.509367
2 0.509748
2 0.509980
2 0.510236
1 0.510487
2 0.511033
3 0.512549
2 0.512699
2 0.513171
1 0.513702
1 0.513747
2 0.514227
1 0.514293
1 0.514411
1 0.515728
2 0.515820
1 0.515992
1 0.516514
2 0.516598
2 0.517772
2 0.518868
1 0.518932
2 0.519253
1 0.519922
2 0.521194
1 0.521893
1 0.522085
2 0.522175
1 0.523539
1 0.524833
1 0.525264
2 0.525360
1 0.525621
1 0.525726
1 0.527025
1 0.527438
1 0.528395
1 0.528455
1 0.530315
1 0.530424
1 0.530818
1 0.530878
1 0.532298
1 0.532326
1 0.532880
1 0.532978
1 0.533478
1 0.533901
1 0.534449
1 0.534662
1 0.534717
3 0.534944
1 0.535016
1 0.535187
1 0.535475
1 0.536315
1 0.536687
3 0.536745
1 0.537141
1 0.537212
1 0.539100
3 0.541412
1 0.541470
1 0.541720
1 0.545498
3 0.555484
2 0.558523
3 0.558943
1 0.559340
1 0.561947
1 0.563111
1 0.563381
1 0.564481
3 0.566055
1 0.569780
1 0.570293
1 0.571100
2 0.573545
1 0.574795
1 0.575577
1 0.577762
3 0.578856
1 0.579299
1 0.579841
1 0.580453
1 0.580933
1 0.581083
2 0.581746
2 0.584209
1 0.585325
2 0.585686
1 0.585784
2 0.586235
3 0.586371
2 0.587889
1 0.588809
2 0.590571
1 0.590620
2 0.591309
2 0.591519
1 0.591841
1 0.593193
1 0.593848
1 0.593936
2 0.595325
2 0.595813
1 0.597891
3 0.598951
1 0.598968
1 0.600074
2 0.600623
1 0.601037
1 0.602280
2 0.608233
1 0.611576
2 0.618213
2 0.629147
1 0.629461
2 0.630689
2 0.631085
1 0.631894
1 0.633310
1 0.633550
1 0.633809
2 0.634840
1 0.635348
1 0.636499
2 0.638271
2 0.638395
1 0.641032
2 0.642420
1 0.642630
1 0.647208
2 0.648190
1 0.653996
1 0.655106
1 0.656659
2 0.656981
1 0.657562
1 0.659342
1 0.659524
2 0.661187
2 0.663619
1 0.664191
1 0.664459
1 0.664581
1 0.664869
1 0.665539
2 0.668140
2 0.668307
1 0.669471
2 0.670603
2 0.671999
2 0.672969
1 0.673259
2 0.675453
2 0.675577
1 0.678526
2 0.678820
1 0.678905
1 0.681644
1 0.681837
1 0.682278
1 0.683013
2 0.684849
2 0.685902
1 0.686614
2 0.688953
2 0.690263
1 0.691848
2 0.692253
2 0.692690
1 0.692840
2 0.694790
2 0.695966
2 0.696116
1 0.696625
2 0.697358
2 0.697827
2 0.698019
1 0.698279
2 0.698782
2 0.699068
1 0.699385
1 0.699511
2 0.699869
2 0.700268
2 0.700809
1 0.701854
2 0.703920
2 0.705294
2 0.705657
2 0.705997
2 0.707004
1 0.707295
1 0.707558
1 0.710007
1 0.710069
2 0.711873
2 0.712082
1 0.712453
2 0.713770
2 0.714928
1 0.716025
1 0.717035
2 0.717424
2 0.719155
2 0.719906
2 0.720339
1 0.723001
1 0.723544
2 0.725470
1 0.726466
1 0.729336
1 0.731529
2 0.732691
1 0.737584
1 0.737844
2 0.737930
1 0.738231
2 0.739694
1 0.743224
1 0.744390
1 0.746642
1 0.756505
2 0.756527
1 0.759029
1 0.761388
1 0.762406
1 0.765243
1 0.767467
1 0.767817
1 0.769657
1 0.773563
1 0.775143
1 0.775810
2 0.776862
1 0.784703
1 0.784796
2 0.784851
1 0.785909
1 0.787189
2 0.793243
1 0.807981
1 0.814839
1 0.822034
1 0.827769
1 0.835202
1 0.840061
1 0.844779
1 0.853022
1 0.867101
1 0.877277
1 0.878726
1 0.879818
2 0.883449
1 0.885157
1 0.886974
3 1.433680
3 1.747955
3 2.000180
3 2.126524
3 2.249947
End Spectral Lines:
