Symbol: Zr
Atomic Number: 40
Atomic Mass: 91.224000
Start Spectral Index: 5
1 459
2 207
3 490
4 76
5 104
End Spectral Index:
Order of Magnitude: 0.000001
Start Spectral Lines:
5 0.029219
5 0.030401
5 0.030524
5 0.036818
4 0.044560
4 0.044796
4 0.047897
4 0.048066
4 0.049723
4 0.050022
4 0.050034
5 0.051925
5 0.053650
4 0.058466
4 0.058543
4 0.058642
4 0.058889
4 0.058975
4 0.062867
3 0.063157
4 0.063357
4 0.063365
3 0.063421
3 0.067149
5 0.067413
5 0.067553
5 0.067939
3 0.068305
3 0.068624
3 0.068640
3 0.068757
3 0.068792
5 0.068827
3 0.068907
3 0.068963
3 0.069005
3 0.069036
3 0.069116
3 0.069117
3 0.069138
3 0.069139
3 0.069200
3 0.069465
3 0.069503
3 0.069524
3 0.069685
3 0.069767
5 0.070303
3 0.070836
3 0.071094
4 0.071249
3 0.071548
3 0.071622
5 0.071724
3 0.072008
3 0.072043
3 0.072310
3 0.072355
3 0.072425
3 0.072429
3 0.072436
3 0.072694
3 0.072896
3 0.073107
3 0.073152
3 0.073299
3 0.073324
3 0.073638
3 0.073662
3 0.073693
5 0.074033
5 0.074061
5 0.074274
3 0.074453
3 0.074756
3 0.075113
5 0.075248
4 0.075439
4 0.076016
3 0.076286
5 0.076458
5 0.076620
5 0.077380
5 0.077558
5 0.077921
5 0.078450
5 0.079723
5 0.080000
3 0.080599
5 0.080689
5 0.080975
3 0.081076
3 0.081097
5 0.081205
3 0.081484
3 0.081547
3 0.081646
3 0.081908
3 0.081953
3 0.082016
3 0.082086
5 0.082206
5 0.082346
3 0.082365
5 0.082378
3 0.082414
5 0.082513
3 0.082561
3 0.082578
3 0.082786
3 0.082919
3 0.082945
5 0.083059
3 0.083255
3 0.083345
3 0.083416
3 0.083477
3 0.083581
5 0.083657
3 0.083657
3 0.083817
3 0.083826
3 0.083908
3 0.083953
3 0.084074
5 0.084140
3 0.084191
3 0.084395
3 0.084524
3 0.084586
4 0.084640
3 0.084651
3 0.084745
3 0.084889
3 0.084990
3 0.085000
3 0.085058
3 0.085079
3 0.085206
5 0.085287
5 0.085368
3 0.085521
3 0.085746
3 0.085831
3 0.085940
3 0.085952
3 0.086002
3 0.086321
4 0.086364
4 0.086459
3 0.086484
3 0.086747
3 0.086861
3 0.086898
3 0.086918
3 0.086946
3 0.087094
3 0.087274
5 0.087311
3 0.087359
3 0.087422
3 0.087904
4 0.088130
4 0.088258
3 0.088276
3 0.088354
3 0.088413
3 0.088562
5 0.088568
3 0.089080
3 0.089099
3 0.089251
3 0.089322
3 0.089698
5 0.090048
3 0.090115
3 0.090509
5 0.090666
3 0.090720
3 0.090757
3 0.090908
3 0.090933
3 0.091122
3 0.091127
3 0.091229
3 0.091346
3 0.091512
5 0.091530
3 0.091806
3 0.091957
5 0.092310
3 0.092766
5 0.094041
5 0.094970
3 0.097217
5 0.097806
5 0.098070
3 0.098258
3 0.098285
5 0.098418
5 0.099559
3 0.099589
3 0.099781
3 0.099956
3 0.099992
3 0.100072
5 0.100248
3 0.100459
3 0.100514
3 0.100604
3 0.100728
3 0.100796
3 0.101115
3 0.101208
3 0.101790
3 0.103064
3 0.103072
4 0.103377
4 0.103397
5 0.103869
5 0.104441
5 0.104777
3 0.104979
3 0.106632
5 0.106855
5 0.107225
3 0.107504
3 0.108057
5 0.108345
5 0.108705
5 0.109354
4 0.109976
4 0.110001
5 0.110879
3 0.111206
4 0.118398
3 0.118800
5 0.119424
5 0.120076
4 0.120177
4 0.121272
4 0.121301
4 0.121987
5 0.123391
5 0.123893
3 0.124604
5 0.125361
5 0.125970
5 0.126091
5 0.126538
3 0.127658
3 0.128559
4 0.128589
4 0.129056
4 0.129170
5 0.129581
5 0.130280
5 0.130393
5 0.130676
5 0.131514
5 0.132074
5 0.132381
5 0.133206
3 0.133420
3 0.133718
5 0.133734
5 0.135521
5 0.135598
3 0.135695
5 0.136139
3 0.136906
3 0.137152
5 0.137654
3 0.137887
3 0.138576
5 0.139679
3 0.140348
3 0.140374
3 0.140839
5 0.141003
5 0.141340
4 0.141771
3 0.141877
3 0.142013
3 0.142087
3 0.142606
4 0.144065
4 0.144107
3 0.144484
3 0.145136
5 0.146005
3 0.146538
4 0.146947
5 0.148690
3 0.148911
5 0.149133
3 0.149463
3 0.149563
3 0.150386
3 0.150839
3 0.151052
3 0.151493
5 0.152047
4 0.154617
5 0.155012
3 0.156323
3 0.156548
3 0.158336
3 0.159356
4 0.159629
4 0.159895
4 0.160526
4 0.160795
4 0.160950
3 0.160985
3 0.161233
3 0.161527
3 0.162059
3 0.163128
5 0.163303
3 0.163655
3 0.163830
3 0.165390
5 0.165446
3 0.165677
3 0.167093
3 0.167235
3 0.167506
3 0.167569
3 0.170314
3 0.170327
3 0.171244
3 0.172271
5 0.172502
3 0.175431
3 0.175910
3 0.176469
3 0.176687
3 0.177022
3 0.177023
3 0.177186
3 0.177386
3 0.177943
3 0.178325
5 0.178620
3 0.179011
5 0.179081
3 0.179352
3 0.179779
3 0.179805
3 0.179993
3 0.180519
5 0.180609
4 0.181806
3 0.182229
3 0.183181
3 0.183213
3 0.183305
4 0.183615
4 0.184637
4 0.184803
4 0.185191
3 0.185231
3 0.185336
3 0.185697
3 0.185907
5 0.186048
5 0.186086
3 0.186167
3 0.186397
3 0.186538
3 0.186581
3 0.187696
5 0.187833
3 0.187986
3 0.188094
3 0.189194
3 0.189429
3 0.191327
3 0.191417
3 0.192192
3 0.192590
5 0.192624
3 0.192657
5 0.192743
3 0.193249
3 0.193425
5 0.193488
3 0.193510
3 0.193643
3 0.193664
3 0.193721
3 0.193778
3 0.194023
3 0.194105
3 0.194427
3 0.194605
3 0.194657
3 0.194691
3 0.195183
3 0.195389
3 0.196124
3 0.196192
3 0.196283
3 0.196508
3 0.196620
3 0.196775
3 0.197260
3 0.197491
3 0.198117
3 0.198169
3 0.198257
3 0.198306
3 0.198673
3 0.198979
3 0.199088
3 0.199442
3 0.199694
3 0.199947
3 0.200256
3 0.200388
3 0.200512
3 0.200527
3 0.200746
3 0.200882
5 0.200994
3 0.201390
3 0.201722
3 0.201970
3 0.202205
3 0.202444
3 0.202736
5 0.202919
3 0.203052
3 0.203070
3 0.203436
3 0.203601
3 0.203752
3 0.204259
3 0.204439
4 0.204578
4 0.204780
3 0.205667
3 0.205869
3 0.205932
3 0.205959
3 0.206148
3 0.206207
3 0.206213
3 0.207102
3 0.207472
3 0.207855
3 0.207857
3 0.208158
3 0.208214
3 0.208240
3 0.208433
3 0.208744
3 0.209012
4 0.209215
4 0.209302
3 0.209762
3 0.210094
3 0.210295
3 0.210313
3 0.210376
3 0.210396
3 0.210487
3 0.210592
3 0.210908
3 0.211469
3 0.211470
3 0.211471
3 0.211473
3 0.211697
3 0.211728
3 0.212065
3 0.212102
3 0.212340
3 0.212574
3 0.212591
5 0.213309
3 0.213653
3 0.213849
3 0.213917
3 0.214052
3 0.214215
3 0.214438
3 0.214464
5 0.215086
3 0.215267
3 0.215991
3 0.216281
4 0.216436
3 0.216704
3 0.217638
3 0.217919
3 0.218078
3 0.219172
3 0.219265
3 0.220688
3 0.220770
3 0.221257
3 0.221534
3 0.221903
3 0.222090
3 0.222207
3 0.222383
3 0.222871
3 0.223170
3 0.223882
3 0.224595
3 0.225167
3 0.225291
3 0.225843
3 0.227138
3 0.227719
3 0.228387
3 0.228426
4 0.228738
3 0.230217
3 0.230882
3 0.231339
3 0.231436
3 0.233128
5 0.233766
3 0.234000
3 0.234729
3 0.236450
1 0.237514
3 0.237833
3 0.238132
3 0.238338
1 0.238490
1 0.238874
1 0.238994
1 0.240625
3 0.240657
3 0.240695
2 0.242015
3 0.242141
3 0.243936
3 0.244534
3 0.244963
2 0.245059
2 0.245818
4 0.247450
4 0.247746
2 0.248804
2 0.249723
2 0.253322
1 0.254041
2 0.254286
1 0.255128
2 0.255151
1 0.255720
1 0.256822
2 0.256841
2 0.256964
2 0.257216
4 0.257310
4 0.257443
4 0.258409
2 0.258417
2 0.258984
1 0.259042
3 0.259447
1 0.261021
3 0.262135
3 0.262202
3 0.262905
2 0.263169
1 0.263621
2 0.263988
2 0.264419
3 0.264459
1 0.264857
2 0.265117
3 0.265728
1 0.265948
3 0.266508
2 0.266859
2 0.267028
2 0.267175
2 0.267943
2 0.268256
3 0.268298
3 0.268711
1 0.268855
3 0.269132
2 0.269340
1 0.269372
2 0.269433
2 0.269486
2 0.269623
3 0.269913
2 0.270040
2 0.270093
3 0.270989
2 0.271231
2 0.271322
2 0.271506
3 0.271661
3 0.272092
2 0.272342
1 0.272628
2 0.272730
2 0.273353
2 0.273567
3 0.273662
2 0.274132
2 0.274236
2 0.274337
2 0.274667
2 0.275302
2 0.275963
2 0.276955
2 0.276967
1 0.277486
2 0.277498
3 0.277610
1 0.279096
1 0.279286
2 0.279772
3 0.279950
2 0.279998
2 0.281174
1 0.281573
2 0.281957
2 0.282639
3 0.283366
2 0.283474
3 0.283706
1 0.283806
2 0.284017
2 0.284436
2 0.284542
2 0.284903
1 0.284936
2 0.285281
3 0.286997
2 0.287065
1 0.287682
3 0.288758
1 0.289311
2 0.290608
2 0.291684
2 0.291749
2 0.291909
2 0.292785
2 0.293547
2 0.293717
2 0.294980
2 0.295234
2 0.295664
1 0.296173
2 0.296355
2 0.296983
1 0.297006
2 0.297050
2 0.297748
2 0.297892
2 0.298005
2 0.298189
1 0.298626
2 0.300462
1 0.300625
1 0.300638
1 0.301263
2 0.301420
2 0.302072
2 0.302135
2 0.302892
1 0.303040
2 0.303180
2 0.303727
1 0.304672
2 0.305573
2 0.306100
2 0.306552
1 0.308624
1 0.309570
2 0.309597
1 0.309672
2 0.310013
2 0.310748
1 0.310927
2 0.311178
1 0.312164
2 0.312683
2 0.313009
2 0.313067
1 0.313202
1 0.313298
1 0.313414
2 0.313439
1 0.313787
2 0.313959
1 0.314071
1 0.314973
2 0.315658
2 0.315791
1 0.315873
3 0.316085
3 0.316452
2 0.316523
2 0.316637
2 0.316689
2 0.316718
2 0.317901
2 0.318250
2 0.318284
2 0.318378
3 0.318782
1 0.319213
2 0.319282
1 0.321294
2 0.321512
2 0.322340
3 0.322487
2 0.322974
2 0.323262
1 0.323505
2 0.323751
2 0.324199
1 0.325133
1 0.325522
1 0.326105
1 0.327060
2 0.327207
2 0.327316
3 0.327359
2 0.327399
3 0.327984
2 0.328020
1 0.328368
2 0.328566
2 0.328683
2 0.328975
4 0.329881
2 0.330610
2 0.330723
2 0.331465
2 0.331545
2 0.331998
2 0.332395
2 0.332776
2 0.333521
2 0.333558
2 0.333937
2 0.334152
2 0.334575
3 0.335152
1 0.335462
2 0.335535
2 0.335705
2 0.335822
2 0.336093
1 0.336143
2 0.336479
2 0.336879
1 0.337156
2 0.337439
2 0.337570
2 0.337724
2 0.337843
2 0.338884
2 0.338927
3 0.339032
2 0.339295
2 0.339409
2 0.339730
2 0.340033
2 0.340581
2 0.341123
4 0.341197
1 0.341564
2 0.343151
2 0.343813
2 0.343922
1 0.344835
1 0.345690
2 0.345855
2 0.345992
2 0.346401
1 0.347218
1 0.347979
2 0.348039
2 0.348215
2 0.348454
2 0.349721
3 0.349888
2 0.350648
2 0.350667
1 0.351032
2 0.351146
1 0.352061
2 0.352682
3 0.353206
1 0.353423
1 0.353617
2 0.354363
1 0.354869
1 0.355075
1 0.355147
2 0.355296
3 0.355467
2 0.355762
3 0.355986
3 0.356444
3 0.356573
1 0.356712
1 0.356990
2 0.357349
2 0.357410
1 0.357681
4 0.357713
2 0.357787
3 0.358589
1 0.358731
3 0.358839
2 0.358900
3 0.359742
1 0.360222
3 0.360352
2 0.361292
2 0.361413
2 0.361580
3 0.361957
1 0.362489
1 0.363519
3 0.364379
3 0.364465
3 0.364827
3 0.364974
3 0.365022
4 0.365421
4 0.366067
3 0.366107
1 0.366224
1 0.366469
3 0.366558
2 0.367232
2 0.367577
3 0.368536
4 0.368795
3 0.369009
3 0.369187
2 0.369851
2 0.369922
3 0.370272
2 0.371032
4 0.371058
3 0.371572
3 0.372031
3 0.372115
3 0.372640
3 0.372750
3 0.372755
3 0.373051
2 0.373232
3 0.373317
3 0.374304
2 0.374704
4 0.375167
2 0.375267
3 0.376135
4 0.376539
1 0.376546
1 0.376779
2 0.376789
4 0.377508
3 0.378064
3 0.378125
1 0.378161
3 0.378727
3 0.379052
1 0.379248
3 0.379568
3 0.379680
2 0.381866
3 0.382128
1 0.382349
3 0.382569
3 0.382881
3 0.383032
3 0.383117
1 0.383705
2 0.383785
3 0.383812
3 0.384349
2 0.384411
1 0.384810
1 0.385034
1 0.386497
1 0.386544
1 0.387870
1 0.388015
1 0.388652
1 0.389142
1 0.389248
1 0.390163
3 0.390873
3 0.391189
2 0.391705
3 0.391804
3 0.392173
1 0.392290
3 0.392691
3 0.392805
1 0.393064
3 0.393259
2 0.393523
2 0.393590
2 0.395934
3 0.396430
3 0.396635
1 0.396778
1 0.396938
3 0.397281
1 0.397462
3 0.397510
1 0.397641
1 0.398273
3 0.398967
2 0.399226
2 0.400010
1 0.400873
1 0.401338
3 0.401746
3 0.401809
3 0.401870
3 0.401927
1 0.402512
1 0.402606
1 0.402834
1 0.403009
2 0.403082
1 0.403118
3 0.403362
3 0.403473
1 0.403703
3 0.403792
1 0.404336
1 0.404472
1 0.404570
2 0.404675
2 0.404981
2 0.405147
1 0.405162
1 0.405618
1 0.405686
1 0.406268
1 0.406531
1 0.407385
1 0.407608
1 0.407768
1 0.407946
3 0.408142
1 0.408237
3 0.408827
1 0.410956
1 0.412262
3 0.412660
3 0.412754
3 0.413325
4 0.413861
3 0.414782
2 0.415037
1 0.415381
3 0.415454
2 0.415741
3 0.416200
2 0.416238
3 0.416647
1 0.416753
3 0.417253
3 0.417405
1 0.418450
1 0.418874
3 0.419468
1 0.419594
3 0.419849
4 0.419945
1 0.420027
1 0.420264
3 0.420473
2 0.421017
2 0.421307
1 0.421505
1 0.422895
3 0.423689
1 0.423725
1 0.424050
1 0.424153
1 0.424239
1 0.424288
1 0.426922
1 0.428340
1 0.429600
1 0.430410
4 0.431829
1 0.434235
3 0.434390
1 0.434911
2 0.436097
1 0.436204
1 0.436768
2 0.438101
3 0.440862
1 0.441428
1 0.442170
1 0.442848
1 0.443273
2 0.444425
1 0.445868
1 0.446816
1 0.447156
1 0.447181
2 0.449823
1 0.450838
1 0.453702
1 0.454349
1 0.455429
1 0.455641
1 0.455680
3 0.456292
4 0.457051
4 0.457054
1 0.457680
1 0.458357
1 0.459184
1 0.460386
1 0.460571
3 0.461026
1 0.462771
1 0.463528
1 0.464613
1 0.468473
1 0.468911
1 0.468976
1 0.470911
1 0.471140
1 0.471324
1 0.471894
1 0.472044
1 0.473365
1 0.474081
1 0.476411
1 0.477364
1 0.478626
1 0.479001
1 0.480721
1 0.481081
1 0.481639
1 0.481698
1 0.482564
1 0.482939
1 0.484013
1 0.485272
1 0.486742
1 0.488260
1 0.488496
1 0.499615
1 0.501286
1 0.504799
1 0.506180
1 0.506632
1 0.506663
1 0.507167
1 0.507539
1 0.507967
1 0.508668
2 0.511369
1 0.511667
1 0.512185
1 0.513483
1 0.515689
1 0.515944
1 0.516011
1 0.516243
1 0.516740
1 0.518043
1 0.518514
1 0.518847
2 0.519305
1 0.520260
1 0.521075
1 0.522638
1 0.524493
1 0.527888
1 0.528152
1 0.529629
1 0.529826
1 0.530345
1 0.531288
1 0.532274
1 0.533232
1 0.533991
2 0.535158
2 0.535184
1 0.535239
1 0.535341
1 0.536405
1 0.536484
1 0.537088
1 0.538387
1 0.538664
1 0.538815
1 0.539268
1 0.539738
1 0.540663
1 0.540912
1 0.541544
1 0.542337
1 0.542787
1 0.542993
1 0.543927
1 0.544192
1 0.545008
1 0.547644
1 0.547892
1 0.547985
1 0.548235
1 0.548268
1 0.548761
1 0.550365
1 0.550940
1 0.551864
1 0.551958
1 0.552995
1 0.553384
1 0.553900
1 0.554686
1 0.561367
1 0.562170
1 0.562509
1 0.566608
1 0.566785
1 0.568248
1 0.568700
1 0.571047
1 0.573729
1 0.579935
1 0.584894
1 0.586990
1 0.587113
1 0.588143
1 0.588725
1 0.590273
1 0.592677
1 0.593684
1 0.595700
1 0.598589
1 0.599703
1 0.600271
1 0.602703
1 0.603428
1 0.604752
1 0.605092
1 0.606452
1 0.612252
1 0.612360
1 0.612654
1 0.612914
1 0.613625
1 0.614216
1 0.614490
1 0.615731
1 0.615941
1 0.616190
1 0.619111
1 0.619467
1 0.621477
1 0.621641
1 0.625899
1 0.626879
1 0.630140
1 0.630608
1 0.631477
1 0.631646
1 0.632310
1 0.634211
1 0.634697
1 0.640877
1 0.642795
1 0.643611
1 0.644752
1 0.645340
1 0.645941
1 0.647200
1 0.648614
1 0.649143
1 0.649489
1 0.650506
1 0.650816
1 0.655235
1 0.657124
1 0.657838
1 0.659381
1 0.659853
1 0.660066
1 0.660509
1 0.662239
2 0.667985
1 0.669003
1 0.670397
1 0.671146
1 0.671973
1 0.675459
1 0.676425
1 0.677103
1 0.677476
2 0.678902
1 0.679272
1 0.683066
1 0.683478
1 0.684722
1 0.684823
1 0.684886
1 0.685115
1 0.685445
1 0.689019
1 0.690249
1 0.690626
1 0.690928
1 0.691878
1 0.693429
1 0.695038
1 0.695576
1 0.696836
1 0.697783
1 0.699277
1 0.699625
1 0.700739
1 0.702934
1 0.705931
1 0.705991
1 0.708925
1 0.709138
1 0.709642
1 0.709755
1 0.709966
1 0.710487
1 0.710568
1 0.711364
1 0.711478
1 0.711548
1 0.713492
1 0.714271
1 0.714644
1 0.717107
1 0.720360
1 0.726017
1 0.726676
1 0.730822
1 0.731363
1 0.731574
1 0.732010
1 0.732984
1 0.733799
1 0.734598
1 0.737553
1 0.738566
1 0.740294
1 0.741343
1 0.742479
1 0.743515
1 0.744191
1 0.746963
1 0.748164
1 0.751777
1 0.752002
1 0.754270
1 0.754667
1 0.755354
1 0.755678
1 0.756053
1 0.756217
1 0.756420
1 0.760924
1 0.761418
1 0.762327
1 0.766071
1 0.769295
1 0.770639
1 0.771054
1 0.776869
1 0.781847
1 0.782150
1 0.782509
1 0.782887
1 0.785151
1 0.787216
1 0.787842
1 0.788435
1 0.790015
1 0.791064
1 0.794265
1 0.794680
1 0.795885
1 0.796217
1 0.796582
1 0.800747
1 0.804826
1 0.805527
1 0.805751
1 0.805798
1 0.806030
1 0.806531
1 0.807230
1 0.811651
1 0.812240
1 0.813523
1 0.815482
1 0.819102
1 0.819698
1 0.820398
1 0.821479
1 0.824264
1 0.828609
1 0.830818
1 0.833473
1 0.837253
1 0.839172
1 0.841631
1 0.845549
1 0.846698
1 0.850077
1 0.858657
1 0.873726
1 0.875188
1 0.878864
1 0.880740
1 0.883852
1 0.890196
End Spectral Lines:
