Symbol: Ce
Atomic Number: 58
Atomic Mass: 140.115000
Start Spectral Index: 5
1 198
2 548
3 262
4 27
5 5
End Spectral Index:
Order of Magnitude: 0.000001
Start Spectral Lines:
5 0.036566
5 0.039936
5 0.040421
4 0.044311
4 0.044758
5 0.048296
5 0.055213
4 0.055892
4 0.057159
4 0.074179
4 0.075460
4 0.075575
3 0.084024
3 0.084411
3 0.084502
3 0.084788
3 0.085118
3 0.085263
3 0.085347
3 0.085378
3 0.085516
3 0.085830
3 0.086015
3 0.086225
3 0.086874
3 0.086951
3 0.086984
3 0.087115
3 0.087127
3 0.088068
3 0.088175
3 0.088404
3 0.088522
3 0.088839
3 0.089275
3 0.089932
3 0.091277
3 0.093704
4 0.097520
3 0.099926
4 0.100931
4 0.102212
3 0.102525
3 0.102529
3 0.102628
3 0.102937
3 0.103455
3 0.104114
3 0.104274
3 0.105161
3 0.105740
3 0.105766
4 0.105767
3 0.105846
4 0.105964
3 0.106299
3 0.106326
3 0.106351
3 0.106776
3 0.106869
3 0.107054
3 0.107279
3 0.107369
3 0.107935
3 0.108082
3 0.108870
3 0.109003
3 0.109248
3 0.109925
3 0.110071
3 0.110709
3 0.111119
3 0.111630
3 0.112558
3 0.112973
3 0.113274
3 0.114255
3 0.119241
3 0.120187
3 0.120405
4 0.128941
4 0.133216
4 0.137272
4 0.157262
4 0.157760
4 0.164158
3 0.171943
4 0.177530
4 0.177903
3 0.179689
3 0.183666
3 0.183699
3 0.186232
4 0.191475
4 0.193721
3 0.195036
3 0.199054
4 0.200107
4 0.200376
4 0.201059
3 0.203399
3 0.205831
3 0.207853
3 0.208398
3 0.209062
3 0.210974
3 0.212322
3 0.213762
3 0.215212
3 0.216756
3 0.217016
3 0.218132
3 0.218439
3 0.220384
3 0.221880
3 0.222270
3 0.222577
3 0.222853
3 0.222874
3 0.224299
3 0.224995
3 0.226555
3 0.226890
3 0.228853
3 0.229941
3 0.230136
3 0.230280
3 0.231805
3 0.231935
3 0.232502
3 0.233838
3 0.235082
3 0.236326
3 0.236849
3 0.237306
3 0.237780
3 0.237821
3 0.238085
3 0.238301
3 0.238579
3 0.239577
3 0.240688
3 0.240881
3 0.241099
3 0.241633
3 0.241774
3 0.242376
3 0.242938
3 0.243098
3 0.243219
4 0.243424
3 0.244054
3 0.244229
3 0.244552
4 0.244624
3 0.245506
2 0.246372
3 0.247070
3 0.247241
3 0.247800
3 0.248019
3 0.248026
3 0.248457
3 0.249825
3 0.250431
3 0.250518
2 0.251927
3 0.253275
3 0.254003
2 0.254945
3 0.255826
3 0.257844
3 0.257907
3 0.258548
3 0.260437
3 0.260874
3 0.261657
3 0.265017
2 0.265180
3 0.266360
2 0.269687
2 0.270768
3 0.272011
2 0.272419
3 0.273085
2 0.274277
3 0.274452
3 0.274971
2 0.275170
3 0.275568
2 0.276224
3 0.276910
2 0.278509
2 0.278617
2 0.279135
2 0.279224
2 0.283173
2 0.283414
3 0.285024
3 0.286223
2 0.287498
3 0.290790
2 0.290927
2 0.291952
3 0.292467
3 0.292612
3 0.293240
3 0.294939
2 0.295680
2 0.296567
2 0.297345
3 0.297459
2 0.297778
2 0.297833
2 0.298128
2 0.299174
2 0.299529
2 0.299651
2 0.300967
2 0.301808
3 0.302363
3 0.303246
2 0.303861
2 0.305287
2 0.305613
3 0.305648
3 0.305745
2 0.305767
3 0.305812
3 0.305847
2 0.306390
2 0.308457
2 0.308534
3 0.308600
2 0.309127
2 0.310428
3 0.310788
2 0.310837
2 0.311118
3 0.311143
2 0.311207
3 0.312247
2 0.312844
2 0.313124
2 0.313178
3 0.314220
3 0.314487
2 0.314551
2 0.314619
2 0.314732
3 0.314797
2 0.316507
2 0.317010
2 0.317253
2 0.318444
2 0.318705
2 0.319126
2 0.319575
2 0.320020
2 0.320264
2 0.321931
2 0.321987
2 0.322210
2 0.322660
2 0.322804
3 0.322950
2 0.323029
2 0.323217
2 0.323509
3 0.323513
2 0.323582
2 0.323767
2 0.324431
2 0.324761
2 0.326192
2 0.326482
3 0.326870
3 0.326888
2 0.327319
2 0.327580
2 0.328079
2 0.328617
2 0.329623
2 0.329783
2 0.330110
2 0.330579
2 0.331317
2 0.331567
2 0.331875
2 0.333542
2 0.334283
2 0.334482
2 0.334572
3 0.335425
2 0.335598
2 0.335818
2 0.336151
2 0.336752
2 0.337215
2 0.337443
2 0.337470
2 0.337810
2 0.338465
3 0.339674
3 0.339989
2 0.340589
2 0.340696
2 0.341843
2 0.342369
2 0.342719
3 0.342834
2 0.344220
3 0.344462
3 0.345538
3 0.346038
3 0.347191
2 0.347784
2 0.348335
2 0.348605
3 0.349881
3 0.350564
2 0.350894
3 0.351542
2 0.351839
2 0.352153
2 0.352289
2 0.352769
2 0.353506
2 0.354009
3 0.354508
2 0.354661
2 0.354720
2 0.355374
2 0.355602
2 0.356182
2 0.357725
2 0.357847
2 0.359162
2 0.360866
2 0.361072
2 0.361473
2 0.362318
2 0.362477
2 0.362487
2 0.363223
2 0.364801
2 0.364879
2 0.364899
2 0.365415
2 0.365471
2 0.365601
2 0.365689
2 0.366027
2 0.366101
2 0.366168
2 0.366902
1 0.367323
2 0.367384
2 0.368047
2 0.369596
2 0.370603
2 0.371035
2 0.371099
2 0.371743
2 0.371925
2 0.371944
2 0.372086
2 0.372674
2 0.372908
2 0.372948
2 0.374913
2 0.375252
2 0.375650
2 0.376405
2 0.376519
2 0.376611
2 0.376983
2 0.377183
2 0.377267
2 0.377768
2 0.378269
2 0.378359
2 0.378465
3 0.378536
2 0.378771
2 0.378983
2 0.379340
2 0.380260
2 0.380417
2 0.380919
2 0.381029
2 0.381328
2 0.381693
2 0.381854
2 0.382010
2 0.382499
2 0.383164
2 0.383217
2 0.383564
2 0.383719
2 0.383963
2 0.384485
2 0.384761
2 0.384919
2 0.384968
2 0.385424
2 0.385527
2 0.385540
2 0.385638
2 0.385811
2 0.385873
2 0.386356
2 0.386923
2 0.387578
2 0.387807
2 0.387946
2 0.388355
2 0.389108
2 0.389185
2 0.389208
2 0.389621
2 0.389790
2 0.389937
2 0.390004
2 0.390445
2 0.390545
2 0.390803
2 0.390840
2 0.390952
2 0.390965
2 0.391042
2 0.391330
2 0.391355
2 0.391663
2 0.391725
2 0.391875
2 0.391939
2 0.392092
2 0.392284
2 0.392422
2 0.392575
2 0.393220
2 0.393248
2 0.393294
2 0.393484
3 0.393791
2 0.393920
2 0.394146
2 0.394209
2 0.394327
2 0.394387
2 0.394501
2 0.394909
2 0.395366
2 0.395478
2 0.395648
2 0.395718
2 0.395740
3 0.395822
2 0.395939
2 0.395999
2 0.396203
2 0.396562
2 0.396817
2 0.397280
2 0.397319
2 0.397619
2 0.397978
2 0.398201
2 0.398402
2 0.398442
2 0.398581
2 0.399057
2 0.399352
2 0.399404
2 0.399495
2 0.400037
2 0.400269
2 0.400490
2 0.400677
2 0.400872
2 0.401352
2 0.401603
2 0.401702
2 0.402018
2 0.402341
2 0.402563
2 0.402629
2 0.402955
2 0.403148
2 0.403248
2 0.403881
2 0.404190
2 0.404372
2 0.404635
2 0.404748
2 0.405257
2 0.405313
2 0.405465
2 0.405614
2 0.406337
2 0.406409
2 0.406843
2 0.406999
2 0.407296
2 0.407407
2 0.407463
2 0.407489
2 0.407686
2 0.407700
2 0.407739
2 0.407862
2 0.407947
2 0.407967
2 0.408159
2 0.408237
2 0.408438
2 0.408638
2 0.408851
2 0.409000
2 0.410293
2 0.410616
2 0.410858
2 0.411154
2 0.411255
2 0.411653
2 0.411817
2 0.411845
2 0.411875
2 0.411930
2 0.412018
2 0.412095
2 0.412104
2 0.412199
2 0.412440
2 0.412465
2 0.412503
2 0.412595
2 0.412853
2 0.412890
2 0.412923
2 0.413188
2 0.413227
2 0.413497
2 0.413661
2 0.413864
2 0.413882
2 0.413927
2 0.413952
2 0.414357
2 0.414566
2 0.414617
2 0.414740
2 0.415007
2 0.415096
2 0.415111
2 0.415208
2 0.415314
2 0.415430
2 0.416020
2 0.416469
2 0.416678
2 0.416805
2 0.416897
3 0.417060
2 0.417095
2 0.417106
2 0.417788
2 0.418226
2 0.418651
2 0.418778
2 0.418850
3 0.419288
2 0.419427
2 0.419446
2 0.419505
3 0.419601
2 0.419752
2 0.419918
2 0.419985
2 0.419990
2 0.420242
2 0.420412
2 0.421060
3 0.421445
2 0.421523
3 0.421832
2 0.421878
2 0.422379
2 0.422894
2 0.423293
2 0.423540
2 0.423721
2 0.424111
2 0.424391
2 0.424709
2 0.424718
2 0.424792
2 0.424988
2 0.425457
2 0.425699
2 0.426463
2 0.427139
2 0.427192
2 0.428006
3 0.428598
2 0.428658
2 0.428987
2 0.429065
2 0.429115
2 0.429728
2 0.429788
2 0.429799
2 0.430057
2 0.430154
3 0.430592
2 0.430635
2 0.430793
2 0.431095
2 0.432194
2 0.433167
2 0.433393
2 0.433745
2 0.433899
2 0.434053
3 0.434757
2 0.435101
2 0.435393
2 0.436589
2 0.437505
2 0.437715
2 0.438340
2 0.438807
2 0.438924
3 0.439120
2 0.439289
2 0.440003
2 0.440044
2 0.441188
2 0.441200
2 0.441814
2 0.442002
2 0.442492
2 0.442831
2 0.442916
2 0.442968
2 0.443051
2 0.444564
2 0.444595
3 0.444957
2 0.445059
2 0.445198
2 0.446146
2 0.446239
2 0.446466
2 0.446879
2 0.447249
2 0.447398
2 0.448062
2 0.448516
3 0.448653
2 0.448817
2 0.449911
1 0.450767
2 0.451713
2 0.452086
3 0.452319
2 0.452435
2 0.452862
2 0.452974
2 0.453376
3 0.453700
2 0.454034
2 0.454102
2 0.454623
2 0.455258
2 0.456156
2 0.456224
2 0.456364
2 0.456712
2 0.457356
3 0.457818
2 0.458378
2 0.459241
2 0.459522
2 0.460769
2 0.462620
3 0.462890
2 0.462946
1 0.463362
1 0.465181
2 0.465559
2 0.467081
2 0.468144
2 0.468592
2 0.471532
2 0.471613
2 0.472641
2 0.473484
2 0.473861
2 0.474086
2 0.474850
2 0.475917
3 0.476740
2 0.477010
2 0.477527
1 0.482390
1 0.484912
2 0.488382
1 0.494482
2 0.497289
3 0.497784
1 0.499602
1 0.501050
2 0.501317
2 0.502427
2 0.503918
1 0.504226
2 0.504543
1 0.507319
2 0.507676
2 0.508110
1 0.511412
2 0.511860
1 0.513100
2 0.514900
1 0.515142
1 0.516113
1 0.516292
1 0.517599
2 0.518890
2 0.519311
1 0.521337
1 0.522491
1 0.523121
2 0.523438
1 0.524738
2 0.526718
2 0.527570
1 0.529803
1 0.532956
2 0.533202
2 0.535502
2 0.539490
1 0.539914
2 0.541073
1 0.542189
1 0.545075
2 0.546989
2 0.547381
2 0.551361
1 0.555779
1 0.556652
1 0.556752
1 0.559743
1 0.560284
3 0.565254
1 0.565671
3 0.566577
1 0.567153
1 0.567933
3 0.569266
1 0.569452
1 0.569857
1 0.570081
3 0.571217
1 0.572062
3 0.575106
1 0.577472
1 0.578976
1 0.581453
1 0.594251
3 0.595148
3 0.596387
3 0.596436
3 0.598122
3 0.598506
1 0.600184
1 0.600356
3 0.600429
1 0.600752
1 0.600786
1 0.600848
1 0.600903
1 0.601509
1 0.601826
1 0.602587
1 0.602883
1 0.603293
3 0.603421
2 0.603525
2 0.603587
1 0.603608
2 0.603716
2 0.604506
1 0.604709
1 0.604907
2 0.605348
1 0.605918
1 0.605968
3 0.606259
3 0.606347
1 0.606843
1 0.607114
1 0.607116
1 0.607368
1 0.607829
1 0.607884
1 0.608205
1 0.608296
1 0.609055
1 0.609065
1 0.609488
3 0.609904
2 0.610003
3 0.610056
1 0.610149
2 0.611043
1 0.612025
1 0.612059
1 0.612536
2 0.613370
1 0.613388
3 0.613680
1 0.613715
1 0.614073
1 0.614462
2 0.614506
1 0.614813
1 0.614954
1 0.615342
1 0.616152
1 0.616385
1 0.616716
1 0.617699
1 0.618788
1 0.618968
1 0.619694
1 0.619724
1 0.619976
1 0.621070
1 0.621854
1 0.623066
1 0.623085
2 0.623417
1 0.623918
1 0.624044
1 0.624360
1 0.624464
1 0.625538
1 0.625972
1 0.626600
2 0.627378
1 0.627821
3 0.628953
1 0.629732
2 0.630125
1 0.630195
1 0.630838
3 0.630990
1 0.631175
1 0.633715
1 0.633896
1 0.634245
3 0.634350
2 0.634570
2 0.637287
1 0.638861
2 0.639479
1 0.639693
2 0.642707
1 0.643185
1 0.643617
1 0.643818
1 0.644790
1 0.645981
2 0.646867
1 0.646918
1 0.647551
1 0.649276
2 0.650507
2 0.650896
2 0.651539
1 0.651911
1 0.655351
1 0.655746
1 0.658092
1 0.660817
2 0.660868
1 0.661389
1 0.662483
1 0.663076
1 0.665273
2 0.665456
1 0.666325
1 0.666743
2 0.667738
1 0.668845
1 0.670251
1 0.670612
2 0.670637
2 0.670789
1 0.673057
1 0.673143
2 0.674656
1 0.674876
2 0.677615
1 0.677746
1 0.678015
1 0.680969
1 0.681070
1 0.682011
2 0.683161
1 0.684914
1 0.685844
1 0.689556
2 0.690035
1 0.692672
1 0.694136
3 0.694686
2 0.697542
2 0.698575
1 0.698795
1 0.705646
2 0.706063
1 0.706195
2 0.706370
1 0.706644
2 0.708830
2 0.710700
2 0.711704
1 0.712669
1 0.714339
2 0.715220
1 0.715364
1 0.715722
2 0.715896
2 0.719138
1 0.719370
2 0.720354
1 0.720387
1 0.720554
1 0.721266
1 0.721935
2 0.723770
2 0.724035
1 0.724373
1 0.725475
1 0.726464
1 0.727991
1 0.729818
2 0.730343
2 0.731546
1 0.733193
2 0.733670
1 0.734546
1 0.739981
1 0.740331
2 0.741998
1 0.743513
1 0.744061
1 0.744649
1 0.747447
2 0.748863
1 0.752953
1 0.752975
1 0.753580
1 0.755333
1 0.756452
1 0.756494
1 0.756568
1 0.760519
2 0.761821
1 0.764818
1 0.764999
1 0.768458
2 0.769129
1 0.773446
3 0.774117
1 0.775048
3 0.776040
1 0.779985
3 0.782895
1 0.784475
2 0.784710
2 0.785218
2 0.785334
2 0.785970
1 0.786665
1 0.786820
2 0.790113
1 0.791570
1 0.792990
2 0.793668
3 0.795083
3 0.796250
3 0.799321
2 0.802777
3 0.803301
1 0.807293
3 0.808634
1 0.809666
1 0.812259
3 0.817958
3 0.818828
3 0.822442
2 0.824382
1 0.826336
2 0.842054
1 0.849815
2 0.854143
1 0.861501
1 0.865004
2 0.870477
2 0.877455
1 0.881326
2 0.889364
3 0.905902
3 0.908207
3 0.933076
3 0.936960
3 0.956999
3 1.046124
3 1.049730
3 1.053725
3 1.068739
3 1.276045
3 1.282513
3 1.585191
3 1.596115
3 1.596495
3 1.613316
3 1.858489
3 1.914652
3 1.938244
3 1.947145
3 1.950346
3 1.952951
3 2.069128
3 2.138607
End Spectral Lines:
